Voltage, Run #1
Time ( s )	Voltage ( V )
0,000	0,026
0,100	0,026
0,200	0,026
0,300	0,026
0,400	0,026
0,500	0,026
0,600	0,026
0,700	0,031
0,800	0,026
0,900	0,026
1,000	0,026
1,100	0,031
1,200	0,026
1,300	0,026
1,400	0,026
1,500	0,026
1,600	0,026
1,700	0,026
1,800	0,026
1,900	0,026
2,000	0,026
2,100	0,026
2,200	0,026
2,300	0,026
2,400	0,026
2,500	0,026
2,600	0,026
2,700	0,026
2,800	0,026
2,900	0,026
3,000	0,021
3,100	0,026
3,200	0,026
3,300	0,026
3,400	0,026
3,500	0,026
3,600	0,026
3,700	0,026
3,800	0,026
3,900	0,026
4,000	0,026
4,100	0,026
4,200	0,026
4,300	0,026
4,400	0,026
4,500	0,026
4,600	0,026
4,700	0,026
4,800	0,026
4,900	0,026
5,000	0,026
5,100	0,026
5,200	0,026
5,300	0,026
5,400	0,026
5,500	0,026
5,600	0,026
5,700	0,026
5,800	0,026
5,900	0,026
6,000	0,026
6,100	0,026
6,200	0,026
6,300	0,026
6,400	0,026
6,500	0,026
6,600	0,026
6,700	0,026
6,800	0,026
6,900	0,026
7,000	0,026
7,100	0,026
7,200	0,021
7,300	0,026
7,400	0,026
7,500	0,026
7,600	0,026
7,700	0,026
7,800	0,026
7,900	0,026
8,000	0,026
8,100	0,026
8,200	0,031
8,300	0,026
8,400	0,026
8,500	0,026
8,600	0,026
8,700	0,026
8,800	0,026
8,900	0,026
9,000	0,026
9,100	0,026
9,200	0,026
9,300	0,026
9,400	0,026
9,500	0,026
9,600	0,026
9,700	0,026
9,800	0,026
9,900	0,026
10,000	0,026
10,100	0,026
10,200	0,026
10,300	0,026
10,400	0,021
10,500	0,026
10,600	0,026
10,700	0,031
10,800	0,026
10,900	0,026
11,000	0,026
11,100	0,026
11,200	0,026
11,300	0,026
11,400	0,026
11,500	0,026
11,600	0,026
11,700	0,026
11,800	0,026
11,900	0,026
12,000	0,026
12,100	0,026
12,200	0,026
12,300	0,026
12,400	0,026
12,500	0,026
12,600	0,026
12,700	0,026
12,800	0,026
12,900	0,026
13,000	0,021
13,100	0,026
13,200	0,026
13,300	0,026
13,400	0,026
13,500	0,026
13,600	0,026
13,700	0,026
13,800	0,026
13,900	0,026
14,000	0,026
14,100	0,026
14,200	0,026
14,300	0,021
14,400	0,026
14,500	0,026
14,600	0,026
14,700	0,026
14,800	0,026
14,900	0,026
15,000	0,026
15,100	0,026
15,200	0,026
15,300	0,026
15,400	0,031
15,500	0,026
15,600	0,026
15,700	0,031
15,800	0,026
15,900	0,026
16,000	0,026
16,100	0,026
16,200	0,026
16,300	0,026
16,400	0,026
16,500	0,026
16,600	0,026
16,700	0,026
16,800	0,026
16,900	0,026
17,000	0,026
17,100	0,026
17,200	0,026
17,300	0,026
17,400	0,026
17,500	0,031
17,600	0,026
17,700	0,026
17,800	0,026
17,900	0,031
18,000	0,026
18,100	0,026
18,200	0,026
18,300	0,026
18,400	0,026
18,500	0,026
18,600	0,026
18,700	0,026
18,800	0,026
18,900	0,026
19,000	0,026
19,100	0,026
19,200	0,026
19,300	0,026
19,400	0,026
19,500	0,026
19,600	0,026
19,700	0,026
19,800	0,026
19,900	0,026
20,000	0,026
20,100	0,026
20,200	0,026
20,300	0,026
20,400	0,026
20,500	0,026
20,600	0,026
20,700	0,026
20,800	0,026
20,900	0,026
21,000	0,026
21,100	0,026
21,200	0,026
21,300	0,026
21,400	0,026
21,500	0,026
21,600	0,026
21,700	0,026
21,800	0,026
21,900	0,031
22,000	0,026
22,100	0,026
22,200	0,026
22,300	0,026
22,400	0,026
22,500	3,290
22,600	3,301
22,700	3,306
22,800	3,316
22,900	3,316
23,000	3,326
23,100	3,326
23,200	3,332
23,300	3,337
23,400	3,342
23,500	3,347
23,600	3,342
23,700	3,347
23,800	3,347
23,900	3,352
24,000	3,352
24,100	3,352
24,200	3,357
24,300	3,357
24,400	3,357
24,500	3,363
24,600	3,363
24,700	3,363
24,800	3,363
24,900	3,363
25,000	3,368
25,100	3,368
25,200	3,368
25,300	3,368
25,400	3,368
25,500	3,368
25,600	3,373
25,700	3,368
25,800	3,373
25,900	3,368
26,000	3,373
26,100	3,373
26,200	3,373
26,300	3,373
26,400	3,373
26,500	3,373
26,600	3,378
26,700	3,378
26,800	3,378
26,900	3,378
27,000	3,378
27,100	3,378
27,200	3,378
27,300	3,383
27,400	3,378
27,500	3,378
27,600	3,378
27,700	3,378
27,800	3,378
27,900	3,383
28,000	3,383
28,100	3,383
28,200	3,383
28,300	3,383
28,400	3,383
28,500	3,383
28,600	3,383
28,700	3,383
28,800	3,383
28,900	3,388
29,000	3,388
29,100	3,388
29,200	3,388
29,300	3,388
29,400	3,388
29,500	3,388
29,600	3,388
29,700	3,388
29,800	3,388
29,900	3,388
30,000	3,388
30,100	3,394
30,200	3,394
30,300	3,388
30,400	3,394
30,500	3,394
30,600	3,394
30,700	3,394
30,800	3,394
30,900	3,394
31,000	3,394
31,100	3,394
31,200	3,394
31,300	3,399
31,400	3,399
31,500	3,399
31,600	3,399
31,700	3,399
31,800	3,399
31,900	3,399
32,000	3,399
32,100	3,399
32,200	3,399
32,300	3,399
32,400	3,399
32,500	3,399
32,600	3,399
32,700	3,404
32,800	3,399
32,900	3,404
33,000	3,404
33,100	3,404
33,200	3,404
33,300	3,404
33,400	3,404
33,500	3,404
33,600	3,409
33,700	3,404
33,800	3,409
33,900	3,409
34,000	3,404
34,100	3,409
34,200	3,409
34,300	3,409
34,400	3,409
34,500	3,409
34,600	3,409
34,700	3,404
34,800	3,409
34,900	3,409
35,000	3,409
35,100	3,414
35,200	3,414
35,300	3,414
35,400	3,409
35,500	3,414
35,600	3,414
35,700	3,414
35,800	3,414
35,900	3,414
36,000	3,414
36,100	3,414
36,200	3,414
36,300	3,414
36,400	3,419
36,500	3,414
36,600	3,414
36,700	3,414
36,800	3,414
36,900	3,414
37,000	3,419
37,100	3,419
37,200	3,419
37,300	3,419
37,400	3,419
37,500	3,419
37,600	3,419
37,700	3,419
37,800	3,419
37,900	3,419
38,000	3,419
38,100	3,419
38,200	3,424
38,300	3,419
38,400	3,424
38,500	3,424
38,600	3,424
38,700	3,419
38,800	3,424
38,900	3,419
39,000	3,424
39,100	3,424
39,200	3,424
39,300	3,424
39,400	3,424
39,500	3,424
39,600	3,424
39,700	3,430
39,800	3,424
39,900	3,424
40,000	3,430
40,100	3,430
40,200	3,424
40,300	3,424
40,400	3,424
40,500	3,430
40,600	3,430
40,700	3,430
40,800	3,430
40,900	3,430
41,000	3,430
41,100	3,430
41,200	3,430
41,300	3,430
41,400	3,435
41,500	3,430
41,600	3,430
41,700	3,435
41,800	3,435
41,900	3,430
42,000	3,435
42,100	3,430
42,200	3,435
42,300	3,435
42,400	3,435
42,500	3,435
42,600	3,435
42,700	3,440
42,800	3,440
42,900	3,440
43,000	3,435
43,100	3,435
43,200	3,435
43,300	3,435
43,400	3,440
43,500	3,435
43,600	3,440
43,700	3,440
43,800	3,440
43,900	3,440
44,000	3,440
44,100	3,440
44,200	3,440
44,300	3,440
44,400	3,440
44,500	3,440
44,600	3,440
44,700	3,440
44,800	3,440
44,900	3,440
45,000	3,445
45,100	3,445
45,200	3,440
45,300	3,440
45,400	3,445
45,500	3,440
45,600	3,445
45,700	3,450
45,800	3,445
45,900	3,440
46,000	3,445
46,100	3,445
46,200	3,445
46,300	3,450
46,400	3,450
46,500	3,445
46,600	3,445
46,700	3,450
46,800	3,450
46,900	3,445
47,000	3,445
47,100	3,445
47,200	3,445
47,300	3,450
47,400	3,450
47,500	3,450
47,600	3,450
47,700	3,450
47,800	3,450
47,900	3,450
48,000	3,450
48,100	3,450
48,200	3,450
48,300	3,450
48,400	3,450
48,500	3,450
48,600	3,455
48,700	3,455
48,800	3,450
48,900	3,450
49,000	3,455
49,100	3,455
49,200	3,455
49,300	3,450
49,400	3,455
49,500	3,455
49,600	3,455
49,700	3,450
49,800	3,455
49,900	3,455
50,000	3,461
50,100	3,455
50,200	3,455
50,300	3,455
50,400	3,455
50,500	3,461
50,600	3,461
50,700	3,461
50,800	3,455
50,900	3,461
51,000	3,455
51,100	3,455
51,200	3,461
51,300	3,455
51,400	3,461
51,500	3,461
51,600	3,461
51,700	3,461
51,800	3,461
51,900	3,461
52,000	3,461
52,100	3,461
52,200	3,461
52,300	3,461
52,400	3,461
52,500	3,461
52,600	3,461
52,700	3,461
52,800	3,461
52,900	3,461
53,000	3,461
53,100	3,461
53,200	3,466
53,300	3,461
53,400	3,466
53,500	3,466
53,600	3,466
53,700	3,466
53,800	3,461
53,900	3,466
54,000	3,466
54,100	3,466
54,200	3,466
54,300	3,466
54,400	3,466
54,500	3,466
54,600	3,461
54,700	3,466
54,800	3,471
54,900	3,466
55,000	3,466
55,100	3,471
55,200	3,471
55,300	3,466
55,400	3,466
55,500	3,466
55,600	3,471
55,700	3,471
55,800	3,471
55,900	3,471
56,000	3,471
56,100	3,471
56,200	3,471
56,300	3,471
56,400	3,466
56,500	3,471
56,600	3,471
56,700	3,471
56,800	3,471
56,900	3,471
57,000	3,471
57,100	3,471
57,200	3,471
57,300	3,471
57,400	3,471
57,500	3,471
57,600	3,471
57,700	3,476
57,800	3,471
57,900	3,471
58,000	3,471
58,100	3,471
58,200	3,476
58,300	3,471
58,400	3,476
58,500	3,476
58,600	3,476
58,700	3,476
58,800	3,476
58,900	3,476
59,000	3,476
59,100	3,476
59,200	3,476
59,300	3,476
59,400	3,476
59,500	3,476
59,600	3,476
59,700	3,476
59,800	3,476
59,900	3,476
60,000	3,476
60,100	3,481
60,200	3,481
60,300	3,476
60,400	3,481
60,500	3,476
60,600	3,476
60,700	3,476
60,800	3,481
60,900	3,481
61,000	3,481
61,100	3,481
61,200	3,481
61,300	3,481
61,400	3,481
61,500	3,481
61,600	3,481
61,700	3,481
61,800	3,481
61,900	3,481
62,000	3,481
62,100	3,481
62,200	3,481
62,300	3,481
62,400	3,481
62,500	3,481
62,600	3,481
62,700	3,481
62,800	3,481
62,900	3,481
63,000	3,486
63,100	3,481
63,200	3,481
63,300	3,481
63,400	3,486
63,500	3,481
63,600	3,486
63,700	3,481
63,800	3,486
63,900	3,486
64,000	3,486
64,100	3,486
64,200	3,486
64,300	3,486
64,400	3,486
64,500	3,486
64,600	3,486
64,700	3,486
64,800	3,486
64,900	3,486
65,000	3,486
65,100	3,486
65,200	3,486
65,300	3,486
65,400	3,486
65,500	3,486
65,600	3,486
65,700	3,486
65,800	3,486
65,900	3,491
66,000	3,486
66,100	3,491
66,200	3,491
66,300	3,491
66,400	3,491
66,500	3,486
66,600	3,491
66,700	3,491
66,800	3,491
66,900	3,491
67,000	3,491
67,100	3,491
67,200	3,491
67,300	3,491
67,400	3,491
67,500	3,491
67,600	3,491
67,700	3,491
67,800	3,491
67,900	3,491
68,000	3,491
68,100	3,491
68,200	3,497
68,300	3,491
68,400	3,497
68,500	3,491
68,600	3,497
68,700	3,491
68,800	3,491
68,900	3,491
69,000	3,491
69,100	3,491
69,200	3,491
69,300	3,497
69,400	3,491
69,500	3,491
69,600	3,497
69,700	3,497
69,800	3,497
69,900	3,491
70,000	3,497
70,100	3,497
70,200	3,491
70,300	3,497
70,400	3,497
70,500	3,491
70,600	3,497
70,700	3,502
70,800	3,497
70,900	3,497
71,000	3,497
71,100	3,497
71,200	3,497
71,300	3,497
71,400	3,497
71,500	3,497
71,600	3,497
71,700	3,497
71,800	3,497
71,900	3,497
72,000	3,502
72,100	3,497
72,200	3,502
72,300	3,497
72,400	3,497
72,500	3,497
72,600	3,502
72,700	3,497
72,800	3,497
72,900	3,497
73,000	3,497
73,100	3,497
73,200	3,497
73,300	3,502
73,400	3,502
73,500	3,502
73,600	3,497
73,700	3,502
73,800	3,497
73,900	3,502
74,000	3,502
74,100	3,502
74,200	3,502
74,300	3,502
74,400	3,502
74,500	3,502
74,600	3,502
74,700	3,502
74,800	3,502
74,900	3,502
75,000	3,502
75,100	3,502
75,200	3,502
75,300	3,502
75,400	3,502
75,500	3,502
75,600	3,502
75,700	3,502
75,800	3,502
75,900	3,502
76,000	3,502
76,100	3,497
76,200	3,507
76,300	3,502
76,400	3,502
76,500	3,507
76,600	3,502
76,700	3,507
76,800	3,507
76,900	3,507
77,000	3,502
77,100	3,507
77,200	3,502
77,300	3,502
77,400	3,502
77,500	3,502
77,600	3,502
77,700	3,507
77,800	3,502
77,900	3,507
78,000	3,507
78,100	3,507
78,200	3,507
78,300	3,507
78,400	3,507
78,500	3,507
78,600	3,507
78,700	3,507
78,800	3,507
78,900	3,507
79,000	3,507
79,100	3,507
79,200	3,507
79,300	3,507
79,400	3,507
79,500	3,507
79,600	3,507
79,700	3,507
79,800	3,507
79,900	3,507
80,000	3,507
80,100	3,507
80,200	3,512
80,300	3,507
80,400	3,507
80,500	3,507
80,600	3,512
80,700	3,507
80,800	3,512
80,900	3,512
81,000	3,512
81,100	3,512
81,200	3,507
81,300	3,512
81,400	3,507
81,500	3,507
81,600	3,512
81,700	3,512
81,800	3,512
81,900	3,512
82,000	3,512
82,100	3,507
82,200	3,512
82,300	3,507
82,400	3,512
82,500	3,512
82,600	3,512
82,700	3,512
82,800	3,512
82,900	3,512
83,000	3,512
83,100	3,512
83,200	3,512
83,300	3,512
83,400	3,512
83,500	3,512
83,600	3,512
83,700	3,512
83,800	3,512
83,900	3,512
84,000	3,512
84,100	3,512
84,200	3,512
84,300	3,512
84,400	3,512
84,500	3,512
84,600	3,512
84,700	3,512
84,800	3,512
84,900	3,512
85,000	3,512
85,100	3,517
85,200	3,512
85,300	3,517
85,400	3,512
85,500	3,517
85,600	3,517
85,700	3,512
85,800	3,517
85,900	3,512
86,000	3,512
86,100	3,512
86,200	3,517
86,300	3,517
86,400	3,517
86,500	3,517
86,600	3,512
86,700	3,512
86,800	3,512
86,900	3,517
87,000	3,517
87,100	3,517
87,200	3,517
87,300	3,517
87,400	3,517
87,500	3,517
87,600	3,512
87,700	3,517
87,800	3,517
87,900	3,517
88,000	3,517
88,100	3,517
88,200	3,517
88,300	3,517
88,400	3,517
88,500	3,517
88,600	3,517
88,700	3,517
88,800	3,517
88,900	3,512
89,000	3,517
89,100	3,517
89,200	3,517
89,300	3,517
89,400	3,517
89,500	3,517
89,600	3,517
89,700	3,517
89,800	3,517
89,900	3,517
90,000	3,517
90,100	3,517
90,200	3,522
90,300	3,517
90,400	3,522
90,500	3,522
90,600	3,522
90,700	3,522
90,800	3,517
90,900	3,517
91,000	3,517
91,100	3,517
91,200	3,517
91,300	3,517
91,400	3,517
91,500	3,517
91,600	3,517
91,700	3,522
91,800	3,522
91,900	3,517
92,000	3,522
92,100	3,522
92,200	3,522
92,300	3,517
92,400	3,517
92,500	3,522
92,600	3,522
92,700	3,522
92,800	3,522
92,900	3,522
93,000	3,517
93,100	3,522
93,200	3,522
93,300	3,522
93,400	3,517
93,500	3,522
93,600	3,522
93,700	3,522
93,800	3,522
93,900	3,522
94,000	3,522
94,100	3,522
94,200	3,522
94,300	3,522
94,400	3,522
94,500	3,528
94,600	3,522
94,700	3,522
94,800	3,522
94,900	3,522
95,000	3,522
95,100	3,522
95,200	3,522
95,300	3,528
95,400	3,528
95,500	3,522
95,600	3,522
95,700	3,522
95,800	3,522
95,900	3,522
96,000	3,522
96,100	3,522
96,200	3,522
96,300	3,528
96,400	3,522
96,500	3,522
96,600	3,522
96,700	3,528
96,800	3,528
96,900	3,522
97,000	3,522
97,100	3,528
97,200	3,522
97,300	3,522
97,400	3,528
97,500	3,522
97,600	3,528
97,700	3,528
97,800	3,522
97,900	3,522
98,000	3,528
98,100	3,528
98,200	3,522
98,300	3,528
98,400	3,528
98,500	3,528
98,600	3,528
98,700	3,522
98,800	3,522
98,900	3,522
99,000	3,528
99,100	3,528
99,200	3,522
99,300	3,528
99,400	3,528
99,500	3,528
99,600	3,528
99,700	3,528
99,800	3,528
99,900	3,528
100,000	3,528
100,100	3,528
100,200	3,528
100,300	3,528
100,400	3,522
100,500	3,522
100,600	3,528
100,700	3,528
100,800	3,528
100,900	3,528
101,000	3,528
101,100	3,528
101,200	3,528
101,300	3,528
101,400	3,528
101,500	3,528
101,600	3,528
101,700	3,533
101,800	3,528
101,900	3,528
102,000	3,522
102,100	3,528
102,200	3,528
102,300	3,528
102,400	3,528
102,500	3,528
102,600	3,528
102,700	3,528
102,800	3,533
102,900	3,528
103,000	3,528
103,100	3,528
103,200	3,533
103,300	3,528
103,400	3,533
103,500	3,528
103,600	3,528
103,700	3,528
103,800	3,528
103,900	3,528
104,000	3,528
104,100	3,533
104,200	3,533
104,300	3,528
104,400	3,528
104,500	3,533
104,600	3,533
104,700	3,528
104,800	3,528
104,900	3,533
105,000	3,533
105,100	3,528
105,200	3,533
105,300	3,528
105,400	3,528
105,500	3,528
105,600	3,533
105,700	3,528
105,800	3,533
105,900	3,533
106,000	3,528
106,100	3,533
106,200	3,528
106,300	3,528
106,400	3,528
106,500	3,533
106,600	3,528
106,700	3,533
106,800	3,533
106,900	3,533
107,000	3,528
107,100	3,533
107,200	3,533
107,300	3,533
107,400	3,533
107,500	3,533
107,600	3,533
107,700	3,533
107,800	3,533
107,900	3,533
108,000	3,533
108,100	3,533
108,200	3,533
108,300	3,533
108,400	3,533
108,500	3,533
108,600	3,533
108,700	3,533
108,800	3,533
108,900	3,533
109,000	3,533
109,100	3,533
109,200	3,533
109,300	3,533
109,400	3,533
109,500	3,533
109,600	3,533
109,700	3,533
109,800	3,533
109,900	3,533
110,000	3,533
110,100	3,533
110,200	3,533
110,300	3,533
110,400	3,533
110,500	3,533
110,600	3,533
110,700	3,533
110,800	3,533
110,900	3,533
111,000	3,533
111,100	3,533
111,200	3,533
111,300	3,533
111,400	3,538
111,500	3,533
111,600	3,533
111,700	3,533
111,800	3,533
111,900	3,533
112,000	3,533
112,100	3,533
112,200	3,533
112,300	3,533
112,400	3,533
112,500	3,533
112,600	3,538
112,700	3,533
112,800	3,533
112,900	3,533
113,000	3,533
113,100	3,538
113,200	3,538
113,300	3,533
113,400	3,533
113,500	3,533
113,600	3,533
113,700	3,533
113,800	3,533
113,900	3,538
114,000	3,533
114,100	3,533
114,200	3,533
114,300	3,538
114,400	3,533
114,500	3,533
114,600	3,533
114,700	3,533
114,800	3,538
114,900	3,538
115,000	3,538
115,100	3,538
115,200	3,533
115,300	3,538
115,400	3,538
115,500	3,538
115,600	3,533
115,700	3,538
115,800	3,538
115,900	3,538
116,000	3,538
116,100	3,538
116,200	3,533
116,300	3,538
116,400	3,538
116,500	3,538
116,600	3,538
116,700	3,538
116,800	3,538
116,900	3,538
117,000	3,538
117,100	3,538
117,200	3,538
117,300	3,538
117,400	3,538
117,500	3,538
117,600	3,538
117,700	3,538
117,800	3,538
117,900	3,538
118,000	3,538
118,100	3,538
118,200	3,538
118,300	3,538
118,400	3,538
118,500	3,538
118,600	3,538
118,700	3,533
118,800	3,538
118,900	3,538
119,000	3,538
119,100	3,538
119,200	3,538
119,300	3,538
119,400	3,538
119,500	3,538
119,600	3,538
119,700	3,538
119,800	3,538
119,900	3,538
120,000	1,331
120,100	1,300
120,200	1,279
120,300	1,253
120,400	1,238
120,500	0,856
120,600	0,841
120,700	0,825
120,800	0,815
120,900	0,805
121,000	0,794
121,100	0,784
121,200	0,779
121,300	0,768
121,400	0,763
121,500	0,753
121,600	0,748
121,700	0,748
121,800	0,737
121,900	0,732
122,000	0,732
122,100	0,727
122,200	0,722
122,300	0,717
122,400	0,717
122,500	0,712
122,600	0,707
122,700	0,707
122,800	0,707
122,900	0,701
123,000	0,701
123,100	0,696
123,200	0,696
123,300	0,691
123,400	0,691
123,500	0,686
123,600	0,686
123,700	0,686
123,800	0,681
123,900	0,681
124,000	0,676
124,100	0,676
124,200	0,676
124,300	0,670
124,400	0,670
124,500	0,670
124,600	0,665
124,700	0,665
124,800	0,665
124,900	0,660
125,000	0,665
125,100	0,660
125,200	0,655
125,300	0,655
125,400	0,655
125,500	0,650
125,600	0,655
125,700	0,650
125,800	0,650
125,900	0,650
126,000	0,645
126,100	0,650
126,200	0,645
126,300	0,640
126,400	0,645
126,500	0,640
126,600	0,640
126,700	0,640
126,800	0,640
126,900	0,634
127,000	0,634
127,100	0,634
127,200	0,629
127,300	0,629
127,400	0,629
127,500	0,629
127,600	0,624
127,700	0,624
127,800	0,624
127,900	0,619
128,000	0,619
128,100	0,619
128,200	0,619
128,300	0,614
128,400	0,614
128,500	0,614
128,600	0,614
128,700	0,614
128,800	0,609
128,900	0,609
129,000	0,609
129,100	0,603
129,200	0,603
129,300	0,603
129,400	0,598
129,500	0,598
129,600	0,598
129,700	0,598
129,800	0,598
129,900	0,593
130,000	0,593
130,100	0,593
130,200	0,593
130,300	0,588
130,400	0,588
130,500	0,588
130,600	0,583
130,700	0,583
130,800	0,583
130,900	0,583
131,000	0,583
131,100	0,583
131,200	0,578
131,300	0,578
131,400	0,578
131,500	0,578
131,600	0,578
131,700	0,572
131,800	0,572
131,900	0,572
132,000	0,572
132,100	0,567
132,200	0,567
132,300	0,567
132,400	0,567
132,500	0,567
132,600	0,562
132,700	0,562
132,800	0,562
132,900	0,562
133,000	0,562
133,100	0,557
133,200	0,557
133,300	0,557
133,400	0,557
133,500	0,552
133,600	0,552
133,700	0,552
133,800	0,552
133,900	0,547
134,000	0,547
134,100	0,547
134,200	0,547
134,300	0,542
134,400	0,547
134,500	0,542
134,600	0,542
134,700	0,542
134,800	0,542
134,900	0,536
135,000	0,542
135,100	0,536
135,200	0,531
135,300	0,531
135,400	0,531
135,500	0,531
135,600	0,531
135,700	0,526
135,800	0,526
135,900	0,521
136,000	0,526
136,100	0,521
136,200	0,521
136,300	0,521
136,400	0,521
136,500	0,521
136,600	0,516
136,700	0,516
136,800	0,516
136,900	0,511
137,000	0,511
137,100	0,511
137,200	0,511
137,300	0,511
137,400	0,511
137,500	0,511
137,600	0,511
137,700	0,505
137,800	0,505
137,900	0,505
138,000	0,505
138,100	0,500
138,200	0,505
138,300	0,500
138,400	0,500
138,500	0,500
138,600	0,500
138,700	0,500
138,800	0,495
138,900	0,495
139,000	0,495
139,100	0,495
139,200	0,495
139,300	0,490
139,400	0,490
139,500	0,490
139,600	0,490
139,700	0,485
139,800	0,485
139,900	0,485
140,000	0,485
140,100	0,485
140,200	0,485
